const MS = `
##TITLE=
##DATA TYPE=MASS SPECTRUM
##JCAMP-DX=
##SAMPLE_DESCRIPTION=
##DATE= Thu Mar 28 10:10:00 CET 2013
##TIME= Thu Mar 28 10:10:00 CET 2013
##SPECTROMETER_SYSTEM=
##EXPERIMENT_NAME=
##INLET=
##IONIZATION_MODE= EI+
##ELECTRON_ENERGY= 70.000000
##RESOLUTION=
##ACCELERATING_VOLTAGE= 8000.000000
##CALIBRATION_FILE=
##REFERENCE_FILE=
##MASS_RANGE=
##SCAN_LAW= Exponential
##SCAN_RATE_UNITS= seconds/decade
##SCAN_RATE= 0.743
##SCAN_DELAY_UNITS= seconds
##SCAN_DELAY= 124.464
##XUNITS= Daltons
##DATA_FORMAT= Centroid
##SCAN_NUMBER= 1
##RETENTION_TIME= 125.207
##TIC= 16132
##NPOINTS= 78
##XYDATA= (XY..XY)
 309.0, 40
 307.1, 33
 241.0, 35
 240.1, 136
 204.1, 63
 186.1, 58
 179.1, 144
 175.2, 63
 154.9, 31
 149.2, 42
 148.2, 130
 147.1, 490
 145.1, 51
 135.0, 81
 134.1, 67
 133.1, 81
 131.1, 39
 130.1, 63
 129.2, 44
 126.9, 89
 122.1, 30
 120.1, 34
 119.0, 43
 117.9, 45
 116.9, 57
 104.9, 85
 103.0, 61
 95.1, 54
 93.0, 103
 91.0, 80
 89.0, 36
 86.9, 233
 86.1, 68
 85.0, 1044
 83.9, 69
 83.0, 1627
 82.1, 97
 80.1, 46
 79.1, 965
 78.0, 201
 77.1, 319
 76.0, 113
 75.1, 1127
 74.0, 71
 73.1, 496
 72.1, 41
 70.0, 45
 69.1, 145
 66.1, 31
 62.9, 33
 61.1, 53
 60.1, 42
 59.0, 157
 58.0, 314
 57.1, 148
 56.1, 38
 55.1, 39
 53.0, 143
 52.1, 734
 51.1, 457
 50.0, 458
 49.0, 229
 48.1, 249
 47.0, 692
 45.1, 320
 44.1, 353
 43.0, 208
 42.0, 100
 41.1, 97
 40.1, 108
 39.0, 127
 38.1, 139
 37.0, 111
 36.0, 176
 34.9, 250
 33.2, 39
 32.1, 1006
 31.1, 166
`;

export default MS;
